"0 Strain Polarized Horizontal - RawData"
"Wavelength nm.","Abs."
300.00000,-4.000000
300.50000, 
301.00000,-4.000000
301.50000, 
302.00000,-4.000000
302.50000, 
303.00000,-3.873001
303.50000, 
304.00000,-0.166122
304.50000, 
305.00000,-0.531860
305.50000, 
306.00000,-0.112640
306.50000, 
307.00000,-4.000000
307.50000, 
308.00000,1.589890
308.50000, 
309.00000,-3.619034
309.50000, 
310.00000,-4.000000
310.50000, 
311.00000,-2.757446
311.50000, 
312.00000,-1.349808
312.50000, 
313.00000,-4.000000
313.50000, 
314.00000,-4.000000
314.50000, 
315.00000,-4.000000
315.50000, 
316.00000,-3.929916
316.50000, 
317.00000,-0.626526
317.50000, 
318.00000,-2.201736
318.50000, 
319.00000,-4.000000
319.50000, 
320.00000,-4.000000
320.50000, 
321.00000,-1.984619
321.50000, 
322.00000,-1.589767
322.50000, 
323.00000,-3.961288
323.50000, 
324.00000,-2.423508
324.50000, 
325.00000,-4.000000
325.50000, 
326.00000,-4.000000
326.50000, 
327.00000,-0.978058
327.50000, 
328.00000,-0.493057
328.50000, 
329.00000,-4.000000
329.50000, 
330.00000,-4.000000
330.50000, 
331.00000,-4.000000
331.50000, 
332.00000,-4.000000
332.50000, 
333.00000,-4.000000
333.50000, 
334.00000,-4.000000
334.50000, 
335.00000,-4.000000
335.50000, 
336.00000,-2.905807
336.50000, 
337.00000,-1.224686
337.50000, 
338.00000,-2.607635
338.50000, 
339.00000,-4.000000
339.50000, 
340.00000,-4.000000
340.50000, 
341.00000,-4.000000
341.50000, 
342.00000,-4.000000
342.50000, 
343.00000,-1.642227
343.50000, 
344.00000,-0.331619
344.50000, 
345.00000,-0.459488
345.50000, 
346.00000,-3.619034
346.50000, 
347.00000,-4.000000
347.50000, 
348.00000,-4.000000
348.50000, 
349.00000,-4.000000
349.50000, 
350.00000,-4.000000
350.50000, 
351.00000,-4.000000
351.50000, 
352.00000,-4.000000
352.50000, 
353.00000,-4.000000
353.50000, 
354.00000,-1.551422
354.50000, 
355.00000,-4.000000
355.50000, 
356.00000,-4.000000
356.50000, 
357.00000,-2.621780
357.50000, 
358.00000,-0.856842
358.50000, 
359.00000,-1.153992
359.50000, 
360.00000,-4.000000
360.50000, 
361.00000,-4.000000
361.50000, 
362.00000,-4.000000
362.50000, 
363.00000,-1.872849
363.50000, 
364.00000,-3.525314
364.50000, 
365.00000,-1.362946
365.50000, 
366.00000,-0.463364
366.50000, 
367.00000,-1.706757
367.50000, 
368.00000,-1.025070
368.50000, 
369.00000,0.256439
369.50000, 
370.00000,0.929016
370.50000, 
371.00000,-0.247940
371.50000, 
372.00000,-0.880417
372.50000, 
373.00000,0.229843
373.50000, 
374.00000,-0.038483
374.50000, 
375.00000,-0.602188
375.50000, 
376.00000,-0.425079
376.50000, 
377.00000,-0.566757
377.50000, 
378.00000,-0.306030
378.50000, 
379.00000,-0.163528
379.50000, 
380.00000,-0.333557
380.50000, 
381.00000,-0.162674
381.50000, 
382.00000,-0.095901
382.50000, 
383.00000,-0.023712
383.50000, 
384.00000,-0.035599
384.50000, 
385.00000,0.000259
385.50000, 
386.00000,0.006516
386.50000, 
387.00000,0.013153
387.50000, 
388.00000,0.014008
388.50000, 
389.00000,0.013718
389.50000, 
390.00000,0.014664
390.50000, 
391.00000,0.012878
391.50000, 
392.00000,0.012100
392.50000, 
393.00000,0.006454
393.50000, 
394.00000,-0.003784
394.50000, 
395.00000,-0.016098
395.50000, 
396.00000,-0.029739
396.50000, 
397.00000,-0.044830
397.50000, 
398.00000,-0.059830
398.50000, 
399.00000,-0.073502
399.50000, 
400.00000,-0.084763
400.50000, 
401.00000,-0.093475
401.50000, 
402.00000,-0.098465
402.50000, 
403.00000,-0.101013
403.50000, 
404.00000,-0.101242
404.50000, 
405.00000,-0.099182
405.50000, 
406.00000,-0.096054
406.50000, 
407.00000,-0.091904
407.50000, 
408.00000,-0.086960
408.50000, 
409.00000,-0.082199
409.50000, 
410.00000,-0.076874
410.50000, 
411.00000,-0.072632
411.50000, 
412.00000,-0.068802
412.50000, 
413.00000,-0.065079
413.50000, 
414.00000,-0.061600
414.50000, 
415.00000,-0.058029
415.50000, 
416.00000,-0.053452
416.50000, 
417.00000,-0.049194
417.50000, 
418.00000,-0.046448
418.50000, 
419.00000,-0.044098
419.50000, 
420.00000,-0.041946
420.50000, 
421.00000,-0.040054
421.50000, 
422.00000,-0.038071
422.50000, 
423.00000,-0.036407
423.50000, 
424.00000,-0.034943
424.50000, 
425.00000,-0.033203
425.50000, 
426.00000,-0.031815
426.50000, 
427.00000,-0.030487
427.50000, 
428.00000,-0.029083
428.50000, 
429.00000,-0.027954
429.50000, 
430.00000,-0.026886
430.50000, 
431.00000,-0.025650
431.50000, 
432.00000,-0.024597
432.50000, 
433.00000,-0.023758
433.50000, 
434.00000,-0.022888
434.50000, 
435.00000,-0.022110
435.50000, 
436.00000,-0.021347
436.50000, 
437.00000,-0.020569
437.50000, 
438.00000,-0.019897
438.50000, 
439.00000,-0.019119
439.50000, 
440.00000,-0.018433
440.50000, 
441.00000,-0.017929
441.50000, 
442.00000,-0.017319
442.50000, 
443.00000,-0.016830
443.50000, 
444.00000,-0.016235
444.50000, 
445.00000,-0.015671
445.50000, 
446.00000,-0.015305
446.50000, 
447.00000,-0.014908
447.50000, 
448.00000,-0.014374
448.50000, 
449.00000,-0.013855
449.50000, 
450.00000,-0.013474
450.50000, 
451.00000,-0.013046
451.50000, 
452.00000,-0.012619
452.50000, 
453.00000,-0.012146
453.50000, 
454.00000,-0.011688
454.50000, 
455.00000,-0.011047
455.50000, 
456.00000,-0.010635
456.50000, 
457.00000,-0.009949
457.50000, 
458.00000,-0.009491
458.50000, 
459.00000,-0.008896
459.50000, 
460.00000,-0.008194
460.50000, 
461.00000,-0.007431
461.50000, 
462.00000,-0.006699
462.50000, 
463.00000,-0.005859
463.50000, 
464.00000,-0.004852
464.50000, 
465.00000,-0.003693
465.50000, 
466.00000,-0.002319
466.50000, 
467.00000,-0.000992
467.50000, 
468.00000,0.000748
468.50000, 
469.00000,0.002792
469.50000, 
470.00000,0.005493
470.50000, 
471.00000,0.009232
471.50000, 
472.00000,0.015030
472.50000, 
473.00000,0.023941
473.50000, 
474.00000,0.029633
474.50000, 
475.00000,0.027344
475.50000, 
476.00000,0.022842
476.50000, 
477.00000,0.016968
477.50000, 
478.00000,0.009644
478.50000, 
479.00000,0.000427
479.50000, 
480.00000,-0.010483
480.50000, 
481.00000,-0.023834
481.50000, 
482.00000,-0.038986
482.50000, 
483.00000,-0.056747
483.50000, 
484.00000,-0.077667
484.50000, 
485.00000,-0.100494
485.50000, 
486.00000,-0.124863
486.50000, 
487.00000,-0.150909
487.50000, 
488.00000,-0.176544
488.50000, 
489.00000,-0.200790
489.50000, 
490.00000,-0.222824
490.50000, 
491.00000,-0.241562
491.50000, 
492.00000,-0.256058
492.50000, 
493.00000,-0.266495
493.50000, 
494.00000,-0.272675
494.50000, 
495.00000,-0.274612
495.50000, 
496.00000,-0.273102
496.50000, 
497.00000,-0.268799
497.50000, 
498.00000,-0.262497
498.50000, 
499.00000,-0.255096
499.50000, 
500.00000,-0.246857
500.50000, 
501.00000,-0.237854
501.50000, 
502.00000,-0.228241
502.50000, 
503.00000,-0.219009
503.50000, 
504.00000,-0.210205
504.50000, 
505.00000,-0.201370
505.50000, 
506.00000,-0.192780
506.50000, 
507.00000,-0.185135
507.50000, 
508.00000,-0.177582
508.50000, 
509.00000,-0.170700
509.50000, 
510.00000,-0.164185
510.50000, 
511.00000,-0.158585
511.50000, 
512.00000,-0.153183
512.50000, 
513.00000,-0.148010
513.50000, 
514.00000,-0.143539
514.50000, 
515.00000,-0.139145
515.50000, 
516.00000,-0.135025
516.50000, 
517.00000,-0.131378
517.50000, 
518.00000,-0.128021
518.50000, 
519.00000,-0.124939
519.50000, 
520.00000,-0.121979
520.50000, 
521.00000,-0.119171
521.50000, 
522.00000,-0.116730
522.50000, 
523.00000,-0.114380
523.50000, 
524.00000,-0.112152
524.50000, 
525.00000,-0.110153
525.50000, 
526.00000,-0.108124
526.50000, 
527.00000,-0.106247
527.50000, 
528.00000,-0.104446
528.50000, 
529.00000,-0.102936
529.50000, 
530.00000,-0.101440
530.50000, 
531.00000,-0.100098
531.50000, 
532.00000,-0.098923
532.50000, 
533.00000,-0.097839
533.50000, 
534.00000,-0.096802
534.50000, 
535.00000,-0.095901
535.50000, 
536.00000,-0.095779
536.50000, 
537.00000,-0.095413
537.50000, 
538.00000,-0.094650
538.50000, 
539.00000,-0.094009
539.50000, 
540.00000,-0.093369
540.50000, 
541.00000,-0.092819
541.50000, 
542.00000,-0.092346
542.50000, 
543.00000,-0.091934
543.50000, 
544.00000,-0.091492
544.50000, 
545.00000,-0.091141
545.50000, 
546.00000,-0.090958
546.50000, 
547.00000,-0.090744
547.50000, 
548.00000,-0.090622
548.50000, 
549.00000,-0.090454
549.50000, 
550.00000,-0.090393
550.50000, 
551.00000,-0.090363
551.50000, 
552.00000,-0.090317
552.50000, 
553.00000,-0.090500
553.50000, 
554.00000,-0.090530
554.50000, 
555.00000,-0.090683
555.50000, 
556.00000,-0.091019
556.50000, 
557.00000,-0.091293
557.50000, 
558.00000,-0.091537
558.50000, 
559.00000,-0.092056
559.50000, 
560.00000,-0.092453
560.50000, 
561.00000,-0.092911
561.50000, 
562.00000,-0.093353
562.50000, 
563.00000,-0.093872
563.50000, 
564.00000,-0.094360
564.50000, 
565.00000,-0.094940
565.50000, 
566.00000,-0.095581
566.50000, 
567.00000,-0.096222
567.50000, 
568.00000,-0.096863
568.50000, 
569.00000,-0.097534
569.50000, 
570.00000,-0.098251
570.50000, 
571.00000,-0.098953
571.50000, 
572.00000,-0.099716
572.50000, 
573.00000,-0.100555
573.50000, 
574.00000,-0.101288
574.50000, 
575.00000,-0.102173
575.50000, 
576.00000,-0.102997
576.50000, 
577.00000,-0.103882
577.50000, 
578.00000,-0.104782
578.50000, 
579.00000,-0.105713
579.50000, 
580.00000,-0.106506
580.50000, 
581.00000,-0.107376
581.50000, 
582.00000,-0.108292
582.50000, 
583.00000,-0.109146
583.50000, 
584.00000,-0.110031
584.50000, 
585.00000,-0.110947
585.50000, 
586.00000,-0.111786
586.50000, 
587.00000,-0.112686
587.50000, 
588.00000,-0.113632
588.50000, 
589.00000,-0.114487
589.50000, 
590.00000,-0.115417
590.50000, 
591.00000,-0.116226
591.50000, 
592.00000,-0.117050
592.50000, 
593.00000,-0.117950
593.50000, 
594.00000,-0.118729
594.50000, 
595.00000,-0.119629
595.50000, 
596.00000,-0.120483
596.50000, 
597.00000,-0.121429
597.50000, 
598.00000,-0.122330
598.50000, 
599.00000,-0.123306
599.50000, 
600.00000,-0.124298
600.50000, 
601.00000,-0.125275
601.50000, 
602.00000,-0.126373
602.50000, 
603.00000,-0.127502
603.50000, 
604.00000,-0.128571
604.50000, 
605.00000,-0.129593
605.50000, 
606.00000,-0.130661
606.50000, 
607.00000,-0.131958
607.50000, 
608.00000,-0.132980
608.50000, 
609.00000,-0.134232
609.50000, 
610.00000,-0.135391
610.50000, 
611.00000,-0.136566
611.50000, 
612.00000,-0.137787
612.50000, 
613.00000,-0.139038
613.50000, 
614.00000,-0.140274
614.50000, 
615.00000,-0.141586
615.50000, 
616.00000,-0.142761
616.50000, 
617.00000,-0.143997
617.50000, 
618.00000,-0.145248
618.50000, 
619.00000,-0.146423
619.50000, 
620.00000,-0.147736
620.50000, 
621.00000,-0.148804
621.50000, 
622.00000,-0.150116
622.50000, 
623.00000,-0.151245
623.50000, 
624.00000,-0.152237
624.50000, 
625.00000,-0.153214
625.50000, 
626.00000,-0.153854
626.50000, 
627.00000,-0.154419
627.50000, 
628.00000,-0.154587
628.50000, 
629.00000,-0.154434
629.50000, 
630.00000,-0.153656
630.50000, 
631.00000,-0.151947
631.50000, 
632.00000,-0.148743
632.50000, 
633.00000,-0.142166
633.50000, 
634.00000,-0.130402
634.50000, 
635.00000,-0.128586
635.50000, 
636.00000,-0.149551
636.50000, 
637.00000,-0.178497
637.50000, 
638.00000,-0.211929
638.50000, 
639.00000,-0.252457
639.50000, 
640.00000,-0.297134
640.50000, 
641.00000,-0.344498
641.50000, 
642.00000,-0.393417
642.50000, 
643.00000,-0.439667
643.50000, 
644.00000,-0.480591
644.50000, 
645.00000,-0.512344
645.50000, 
646.00000,-0.533936
646.50000, 
647.00000,-0.544205
647.50000, 
648.00000,-0.544327
648.50000, 
649.00000,-0.536285
649.50000, 
650.00000,-0.522812
650.50000, 
651.00000,-0.506180
651.50000, 
652.00000,-0.487991
652.50000, 
653.00000,-0.469910
653.50000, 
654.00000,-0.452240
654.50000, 
655.00000,-0.435806
655.50000, 
656.00000,-0.420517
656.50000, 
657.00000,-0.406448
657.50000, 
658.00000,-0.393814
658.50000, 
659.00000,-0.382370
659.50000, 
660.00000,-0.371216
660.50000, 
661.00000,-0.361343
661.50000, 
662.00000,-0.352600
662.50000, 
663.00000,-0.344391
663.50000, 
664.00000,-0.337082
664.50000, 
665.00000,-0.330414
665.50000, 
666.00000,-0.324326
666.50000, 
667.00000,-0.318649
667.50000, 
668.00000,-0.313416
668.50000, 
669.00000,-0.308548
669.50000, 
670.00000,-0.304123
670.50000, 
671.00000,-0.299911
671.50000, 
672.00000,-0.295944
672.50000, 
673.00000,-0.292297
673.50000, 
674.00000,-0.289246
674.50000, 
675.00000,-0.286026
675.50000, 
676.00000,-0.283401
676.50000, 
677.00000,-0.280579
677.50000, 
678.00000,-0.278351
678.50000, 
679.00000,-0.276031
679.50000, 
680.00000,-0.274170
680.50000, 
681.00000,-0.272125
681.50000, 
682.00000,-0.270447
682.50000, 
683.00000,-0.268631
683.50000, 
684.00000,-0.267380
684.50000, 
685.00000,-0.265854
685.50000, 
686.00000,-0.264740
686.50000, 
687.00000,-0.263428
687.50000, 
688.00000,-0.262466
688.50000, 
689.00000,-0.261322
689.50000, 
690.00000,-0.260666
690.50000, 
691.00000,-0.259720
691.50000, 
692.00000,-0.258911
692.50000, 
693.00000,-0.258240
693.50000, 
694.00000,-0.257645
694.50000, 
695.00000,-0.257004
695.50000, 
696.00000,-0.256516
696.50000, 
697.00000,-0.256012
697.50000, 
698.00000,-0.255493
698.50000, 
699.00000,-0.255127
699.50000, 
700.00000,-0.254837
700.50000, 
701.00000,-0.254532
701.50000, 
702.00000,-0.254089
702.50000, 
703.00000,-0.254089
703.50000, 
704.00000,-0.253616
704.50000, 
705.00000,-0.253677
705.50000, 
706.00000,-0.253372
706.50000, 
707.00000,-0.253555
707.50000, 
708.00000,-0.253296
708.50000, 
709.00000,-0.253494
709.50000, 
710.00000,-0.253204
710.50000, 
711.00000,-0.253479
711.50000, 
712.00000,-0.253510
712.50000, 
713.00000,-0.253464
713.50000, 
714.00000,-0.253708
714.50000, 
715.00000,-0.253510
715.50000, 
716.00000,-0.253922
716.50000, 
717.00000,-0.253906
717.50000, 
718.00000,-0.254364
718.50000, 
719.00000,-0.254349
719.50000, 
720.00000,-0.254669
720.50000, 
721.00000,-0.254776
721.50000, 
722.00000,-0.255096
722.50000, 
723.00000,-0.255402
723.50000, 
724.00000,-0.255463
724.50000, 
725.00000,-0.256195
725.50000, 
726.00000,-0.256088
726.50000, 
727.00000,-0.256729
727.50000, 
728.00000,-0.256790
728.50000, 
729.00000,-0.257263
729.50000, 
730.00000,-0.257523
730.50000, 
731.00000,-0.257828
731.50000, 
732.00000,-0.258423
732.50000, 
733.00000,-0.258469
733.50000, 
734.00000,-0.259155
734.50000, 
735.00000,-0.259293
735.50000, 
736.00000,-0.259842
736.50000, 
737.00000,-0.260223
737.50000, 
738.00000,-0.260437
738.50000, 
739.00000,-0.261200
739.50000, 
740.00000,-0.261353
740.50000, 
741.00000,-0.261993
741.50000, 
742.00000,-0.262390
742.50000, 
743.00000,-0.262787
743.50000, 
744.00000,-0.263428
744.50000, 
745.00000,-0.263733
745.50000, 
746.00000,-0.264633
746.50000, 
747.00000,-0.264938
747.50000, 
748.00000,-0.265640
748.50000, 
749.00000,-0.266022
749.50000, 
750.00000,-0.266418
750.50000, 
751.00000,-0.267365
751.50000, 
752.00000,-0.267548
752.50000, 
753.00000,-0.268326
753.50000, 
754.00000,-0.268829
754.50000, 
755.00000,-0.269211
755.50000, 
756.00000,-0.270035
756.50000, 
757.00000,-0.270309
757.50000, 
758.00000,-0.271118
758.50000, 
759.00000,-0.271606
759.50000, 
760.00000,-0.271851
760.50000, 
761.00000,-0.272690
761.50000, 
762.00000,-0.272934
762.50000, 
763.00000,-0.273788
763.50000, 
764.00000,-0.274368
764.50000, 
765.00000,-0.274811
765.50000, 
766.00000,-0.275696
766.50000, 
767.00000,-0.275940
767.50000, 
768.00000,-0.276764
768.50000, 
769.00000,-0.277267
769.50000, 
770.00000,-0.277649
770.50000, 
771.00000,-0.278595
771.50000, 
772.00000,-0.278824
772.50000, 
773.00000,-0.279541
773.50000, 
774.00000,-0.280197
774.50000, 
775.00000,-0.280502
775.50000, 
776.00000,-0.281433
776.50000, 
777.00000,-0.281769
777.50000, 
778.00000,-0.282333
778.50000, 
779.00000,-0.283112
779.50000, 
780.00000,-0.283188
780.50000, 
781.00000,-0.283875
781.50000, 
782.00000,-0.284241
782.50000, 
783.00000,-0.284470
783.50000, 
784.00000,-0.285309
784.50000, 
785.00000,-0.285553
785.50000, 
786.00000,-0.285919
786.50000, 
787.00000,-0.286606
787.50000, 
788.00000,-0.286560
788.50000, 
789.00000,-0.287109
789.50000, 
790.00000,-0.287323
790.50000, 
791.00000,-0.287277
791.50000, 
792.00000,-0.287720
792.50000, 
793.00000,-0.287598
793.50000, 
794.00000,-0.287567
794.50000, 
795.00000,-0.287933
795.50000, 
796.00000,-0.287689
796.50000, 
797.00000,-0.287933
797.50000, 
798.00000,-0.287781
798.50000, 
799.00000,-0.287094
799.50000, 
800.00000,-0.286987
800.50000, 
801.00000,-0.286392
801.50000, 
802.00000,-0.285706
802.50000, 
803.00000,-0.285660
803.50000, 
804.00000,-0.284775
804.50000, 
805.00000,-0.283890
805.50000, 
806.00000,-0.283279
806.50000, 
807.00000,-0.282135
807.50000, 
808.00000,-0.281082
808.50000, 
809.00000,-0.280441
809.50000, 
810.00000,-0.278687
810.50000, 
811.00000,-0.277405
811.50000, 
812.00000,-0.276001
812.50000, 
813.00000,-0.273926
813.50000, 
814.00000,-0.272369
814.50000, 
815.00000,-0.270782
815.50000, 
816.00000,-0.268509
816.50000, 
817.00000,-0.266846
817.50000, 
818.00000,-0.264389
818.50000, 
819.00000,-0.261673
819.50000, 
820.00000,-0.259613
820.50000, 
821.00000,-0.256882
821.50000, 
822.00000,-0.254089
822.50000, 
823.00000,-0.251740
823.50000, 
824.00000,-0.248642
824.50000, 
825.00000,-0.245499
825.50000, 
826.00000,-0.243088
826.50000, 
827.00000,-0.239838
827.50000, 
828.00000,-0.236237
828.50000, 
829.00000,-0.233185
829.50000, 
830.00000,-0.229736
830.50000, 
831.00000,-0.226013
831.50000, 
832.00000,-0.222992
832.50000, 
833.00000,-0.218964
833.50000, 
834.00000,-0.214767
834.50000, 
835.00000,-0.211182
835.50000, 
836.00000,-0.207169
836.50000, 
837.00000,-0.203018
837.50000, 
838.00000,-0.199448
838.50000, 
839.00000,-0.194992
839.50000, 
840.00000,-0.190689
840.50000, 
841.00000,-0.187378
841.50000, 
842.00000,-0.183105
842.50000, 
843.00000,-0.178543
843.50000, 
844.00000,-0.174667
844.50000, 
845.00000,-0.170471
845.50000, 
846.00000,-0.166214
846.50000, 
847.00000,-0.162643
847.50000, 
848.00000,-0.158371
848.50000, 
849.00000,-0.153854
849.50000, 
850.00000,-0.150330
850.50000, 
851.00000,-0.146515
851.50000, 
852.00000,-0.141800
852.50000, 
853.00000,-0.137970
853.50000, 
854.00000,-0.134598
854.50000, 
855.00000,-0.129944
855.50000, 
856.00000,-0.125641
856.50000, 
857.00000,-0.122070
857.50000, 
858.00000,-0.117752
858.50000, 
859.00000,-0.113724
859.50000, 
860.00000,-0.110291
860.50000, 
861.00000,-0.106049
861.50000, 
862.00000,-0.101974
862.50000, 
863.00000,-0.098694
863.50000, 
864.00000,-0.094849
864.50000, 
865.00000,-0.090546
865.50000, 
866.00000,-0.087646
866.50000, 
867.00000,-0.084412
867.50000, 
868.00000,-0.080338
868.50000, 
869.00000,-0.077133
869.50000, 
870.00000,-0.074310
870.50000, 
871.00000,-0.070572
871.50000, 
872.00000,-0.067032
872.50000, 
873.00000,-0.064575
873.50000, 
874.00000,-0.061340
874.50000, 
875.00000,-0.057724
875.50000, 
876.00000,-0.055176
876.50000, 
877.00000,-0.052216
877.50000, 
878.00000,-0.048645
878.50000, 
879.00000,-0.045975
879.50000, 
880.00000,-0.043640
880.50000, 
881.00000,-0.040253
881.50000, 
882.00000,-0.037399
882.50000, 
883.00000,-0.035492
883.50000, 
884.00000,-0.032379
884.50000, 
885.00000,-0.029480
885.50000, 
886.00000,-0.027527
